Bruker Nano GmbH Berlin, Germany
Esprit 2.0

Date: 2/7/2020 1:41:14 PM
Real time: 597517445
Life time: 597517445
Pulse density: 8

Primary energy: -1
Take off angle: 35
Tilt angle: 0
Azimut angle: 45

Detector type: XFlash 5010
Window type: slew AP3.3
Detector thickness: 0.45
Si dead layer:0.029

Calibration, lin.: 5.002
Calibration, abs.: -475.793
Mn FWHM: 126.243
Fano factor: 0.107
Channels: 4096

Energy   Counts
-0.4758        0
-0.4708        0
-0.4658        0
-0.4608        0
-0.4558        0
-0.4508        0
-0.4458        0
-0.4408        0
-0.4358        0
-0.4308        0
-0.4258        0
-0.4208        0
-0.4158        0
-0.4108        0
-0.4058        0
-0.4008        0
-0.3958        0
-0.3908        0
-0.3858        0
-0.3808        0
-0.3758        0
-0.3708        0
-0.3658        0
-0.3608        0
-0.3558        0
-0.3508        0
-0.3458        0
-0.3408        0
-0.3358        0
-0.3307        0
-0.3257        0
-0.3207        0
-0.3157        0
-0.3107        0
-0.3057        0
-0.3007        0
-0.2957        0
-0.2907        0
-0.2857        0
-0.2807        0
-0.2757        0
-0.2707        0
-0.2657        0
-0.2607        0
-0.2557        0
-0.2507        0
-0.2457        0
-0.2407        0
-0.2357        0
-0.2307        0
-0.2257        0
-0.2207        0
-0.2157        0
-0.2107        0
-0.2057        0
-0.2007        0
-0.1957        0
-0.1907        0
-0.1857        0
-0.1807        0
-0.1757        0
-0.1707        0
-0.1657        0
-0.1607        0
-0.1557        0
-0.1507        0
-0.1457        0
-0.1407        0
-0.1357        0
-0.1307        0
-0.1257        0
-0.1207        4
-0.1157        9
-0.1107       32
-0.1057      117
-0.1007      475
-0.0957     1354
-0.0907     3936
-0.0857    11096
-0.0807    28505
-0.0757    69765
-0.0707   161015
-0.0657   352259
-0.0607   723932
-0.0557  1412839
-0.0507  2611378
-0.0457  4577158
-0.0407  7596852
-0.0357 11962377
-0.0307 17815907
-0.0257 25071056
-0.0207 33336506
-0.0157 41833514
-0.0107 49448399
-0.0057 55087300
-0.0007 57754254
 0.0044 57039517
 0.0094 53037321
 0.0144 46460263
 0.0194 38395595
 0.0244 29952957
 0.0294 22082134
 0.0344 15400563
 0.0394 10177104
 0.0444  6378499
 0.0494  3791607
 0.0544  2138581
 0.0594  1144774
 0.0644   577471
 0.0694   272760
 0.0744   114556
 0.0794    35866
 0.0844     5582
 0.0894      239
 0.0944        0
 0.0994        0
 0.1044        0
 0.1094       59
 0.1144      252
 0.1194     3084
 0.1244     2814
 0.1294     1647
 0.1344      983
 0.1394      714
 0.1444      666
 0.1494      669
 0.1544      716
 0.1594      698
 0.1644      745
 0.1694      769
 0.1744      784
 0.1794      817
 0.1844      899
 0.1894      875
 0.1944      934
 0.1994      891
 0.2044      911
 0.2094      907
 0.2144      854
 0.2194      833
 0.2244      765
 0.2294      693
 0.2344      658
 0.2394      602
 0.2444      514
 0.2494      501
 0.2544      472
 0.2594      453
 0.2644      429
 0.2694      457
 0.2744      462
 0.2794      465
 0.2844      430
 0.2894      446
 0.2944      412
 0.2994      389
 0.3044      396
 0.3094      395
 0.3144      373
 0.3194      393
 0.3244      374
 0.3294      374
 0.3345      372
 0.3395      329
 0.3445      312
 0.3495      338
 0.3545      361
 0.3595      336
 0.3645      356
 0.3695      361
 0.3745      351
 0.3795      328
 0.3845      320
 0.3895      331
 0.3945      309
 0.3995      301
 0.4045      309
 0.4095      296
 0.4145      301
 0.4195      301
 0.4245      271
 0.4295      278
 0.4345      315
 0.4395      308
 0.4445      288
 0.4495      275
 0.4545      274
 0.4595      272
 0.4645      260
 0.4695      260
 0.4745      252
 0.4795      260
 0.4845      261
 0.4895      263
 0.4945      280
 0.4995      261
 0.5045      265
 0.5095      254
 0.5145      249
 0.5195      263
 0.5245      250
 0.5295      248
 0.5345      247
 0.5395      238
 0.5445      249
 0.5495      247
 0.5545      237
 0.5595      242
 0.5645      212
 0.5695      220
 0.5745      232
 0.5795      237
 0.5845      221
 0.5895      225
 0.5945      205
 0.5995      198
 0.6045      215
 0.6095      210
 0.6145      225
 0.6195      220
 0.6245      181
 0.6295      222
 0.6345      202
 0.6395      211
 0.6445      190
 0.6495      195
 0.6545      207
 0.6595      233
 0.6645      218
 0.6696      224
 0.6746      225
 0.6796      202
 0.6846      218
 0.6896      204
 0.6946      222
 0.6996      208
 0.7046      177
 0.7096      205
 0.7146      178
 0.7196      193
 0.7246      208
 0.7296      204
 0.7346      205
 0.7396      181
 0.7446      180
 0.7496      190
 0.7546      207
 0.7596      176
 0.7646      187
 0.7696      174
 0.7746      201
 0.7796      193
 0.7846      210
 0.7896      183
 0.7946      185
 0.7996      182
 0.8046      211
 0.8096      177
 0.8146      149
 0.8196      185
 0.8246      188
 0.8296      167
 0.8346      163
 0.8396      163
 0.8446      193
 0.8496      182
 0.8546      193
 0.8596      169
 0.8646      176
 0.8696      162
 0.8746      150
 0.8796      161
 0.8846      183
 0.8896      138
 0.8946      153
 0.8996      182
 0.9046      175
 0.9096      177
 0.9146      172
 0.9196      167
 0.9246      148
 0.9296      162
 0.9346      145
 0.9396      173
 0.9446      163
 0.9496      172
 0.9546      175
 0.9596      163
 0.9646      150
 0.9696      181
 0.9746      168
 0.9796      162
 0.9846      138
 0.9896      144
 0.9946      159
 0.9996      151
 1.0047      178
 1.0097      156
 1.0147      140
 1.0197      147
 1.0247      153
 1.0297      178
 1.0347      180
 1.0397      176
 1.0447      160
 1.0497      138
 1.0547      153
 1.0597      175
 1.0647      155
 1.0697      130
 1.0747      137
 1.0797      162
 1.0847      143
 1.0897      156
 1.0947      163
 1.0997      161
 1.1047      149
 1.1097      159
 1.1147      156
 1.1197      170
 1.1247      153
 1.1297      134
 1.1347      170
 1.1397      166
 1.1447      121
 1.1497      134
 1.1547      156
 1.1597      133
 1.1647      152
 1.1697      153
 1.1747      135
 1.1797      146
 1.1847      147
 1.1897      128
 1.1947      154
 1.1997      162
 1.2047      118
 1.2097      151
 1.2147      151
 1.2197      145
 1.2247      148
 1.2297      165
 1.2347      151
 1.2397      160
 1.2447      122
 1.2497      141
 1.2547      157
 1.2597      157
 1.2647      166
 1.2697      175
 1.2747      138
 1.2797      152
 1.2847      161
 1.2897      129
 1.2947      159
 1.2997      182
 1.3047      166
 1.3097      182
 1.3147      177
 1.3197      167
 1.3247      129
 1.3297      150
 1.3348      160
 1.3398      151
 1.3448      170
 1.3498      178
 1.3548      158
 1.3598      170
 1.3648      164
 1.3698      196
 1.3748      195
 1.3798      180
 1.3848      206
 1.3898      223
 1.3948      205
 1.3998      241
 1.4048      317
 1.4098      292
 1.4148      305
 1.4198      345
 1.4248      432
 1.4298      433
 1.4348      466
 1.4398      577
 1.4448      596
 1.4498      709
 1.4548      811
 1.4598      871
 1.4648      967
 1.4698     1069
 1.4748     1147
 1.4798     1230
 1.4848     1209
 1.4898     1285
 1.4948     1352
 1.4998     1316
 1.5048     1247
 1.5098     1247
 1.5148     1180
 1.5198     1150
 1.5248     1075
 1.5298     1007
 1.5348     1016
 1.5398      912
 1.5448      827
 1.5498      767
 1.5548      664
 1.5598      618
 1.5648      500
 1.5698      464
 1.5748      402
 1.5798      359
 1.5848      329
 1.5898      324
 1.5948      256
 1.5998      229
 1.6048      183
 1.6098      158
 1.6148      177
 1.6198      161
 1.6248      146
 1.6298      157
 1.6348      125
 1.6398      137
 1.6448      136
 1.6498      162
 1.6548      123
 1.6598      123
 1.6648      132
 1.6699      122
 1.6749      124
 1.6799      117
 1.6849      153
 1.6899      101
 1.6949      115
 1.6999      128
 1.7049      134
 1.7099      129
 1.7149      148
 1.7199      120
 1.7249      137
 1.7299      141
 1.7349      131
 1.7399      117
 1.7449      125
 1.7499      115
 1.7549      110
 1.7599      112
 1.7649      141
 1.7699      148
 1.7749      144
 1.7799      126
 1.7849      131
 1.7899      139
 1.7949      129
 1.7999      123
 1.8049      156
 1.8099      114
 1.8149      113
 1.8199      124
 1.8249      122
 1.8299      130
 1.8349      144
 1.8399      126
 1.8449      156
 1.8499      160
 1.8549      124
 1.8599      125
 1.8649      125
 1.8699      158
 1.8749      138
 1.8799      134
 1.8849      117
 1.8899      114
 1.8949      140
 1.8999      141
 1.9049      152
 1.9099      144
 1.9149      148
 1.9199      121
 1.9249      151
 1.9299      139
 1.9349      125
 1.9399      131
 1.9449      150
 1.9499      133
 1.9549      122
 1.9599      139
 1.9649      147
 1.9699      130
 1.9749      148
 1.9799      172
 1.9849      152
 1.9899      163
 1.9949      152
 1.9999      158
  2.005      151
   2.01      151
  2.015      152
   2.02      177
  2.025      135
   2.03      170
  2.035      168
   2.04      158
  2.045      169
   2.05      161
  2.055      168
   2.06      159
  2.065      181
   2.07      164
  2.075      151
   2.08      166
  2.085      173
   2.09      165
  2.095      175
    2.1      150
  2.105      145
   2.11      155
  2.115      164
   2.12      152
  2.125      113
   2.13      142
  2.135      150
   2.14      126
  2.145      149
   2.15      169
  2.155      155
   2.16      131
  2.165      160
   2.17      158
  2.175      151
   2.18      136
  2.185      141
   2.19      138
  2.195      139
    2.2      147
  2.205      152
   2.21      138
  2.215      128
   2.22      154
  2.225      144
   2.23      129
  2.235      131
   2.24      134
  2.245      147
   2.25      144
  2.255      176
   2.26      140
  2.265      151
   2.27      137
  2.275      142
   2.28      130
  2.285      144
   2.29      128
  2.295      145
    2.3      142
  2.305      134
   2.31      139
  2.315      121
   2.32      139
  2.325      142
   2.33      134
 2.3351      116
 2.3401      140
 2.3451      119
 2.3501      130
 2.3551      126
 2.3601      117
 2.3651      130
 2.3701      138
 2.3751      127
 2.3801      135
 2.3851      147
 2.3901      146
 2.3951      137
 2.4001      138
 2.4051      130
 2.4101      130
 2.4151      130
 2.4201      168
 2.4251      138
 2.4301      132
 2.4351      133
 2.4401      132
 2.4451      137
 2.4501      153
 2.4551      151
 2.4601      142
 2.4651      154
 2.4701      132
 2.4751      130
 2.4801      120
 2.4851      117
 2.4901      149
 2.4951      144
 2.5001      118
 2.5051      130
 2.5101      122
 2.5151      155
 2.5201      128
 2.5251      116
 2.5301      152
 2.5351      137
 2.5401      128
 2.5451      123
 2.5501      142
 2.5551      133
 2.5601      149
 2.5651      131
 2.5701      155
 2.5751      151
 2.5801      130
 2.5851      134
 2.5901      134
 2.5951      135
 2.6001      130
 2.6051      151
 2.6101      139
 2.6151      136
 2.6201      127
 2.6251      135
 2.6301      136
 2.6351      141
 2.6401      131
 2.6451      110
 2.6501      150
 2.6551      149
 2.6601      125
 2.6651      126
 2.6702      149
 2.6752      155
 2.6802      142
 2.6852      158
 2.6902      125
 2.6952      125
 2.7002      153
 2.7052      129
 2.7102      115
 2.7152      140
 2.7202      143
 2.7252      130
 2.7302      165
 2.7352      171
 2.7402      154
 2.7452      143
 2.7502      126
 2.7552      168
 2.7602      160
 2.7652      159
 2.7702      152
 2.7752      106
 2.7802       99
 2.7852      125
 2.7902      137
 2.7952      123
 2.8002      136
 2.8052      147
 2.8102      147
 2.8152      138
 2.8202      163
 2.8252      127
 2.8302      162
 2.8352      130
 2.8402      122
 2.8452      129
 2.8502      152
 2.8552      126
 2.8602      161
 2.8652      133
 2.8702      150
 2.8752      142
 2.8802      140
 2.8852      108
 2.8902      153
 2.8952      107
 2.9002      191
 2.9052      154
 2.9102      153
 2.9152      166
 2.9202      148
 2.9252      143
 2.9302      148
 2.9352      146
 2.9402      146
 2.9452      158
 2.9502      127
 2.9552      172
 2.9602      175
 2.9652      167
 2.9702      147
 2.9752      156
 2.9802      152
 2.9852      124
 2.9902      158
 2.9952      187
 3.0002      156
 3.0053      156
 3.0103      155
 3.0153      141
 3.0203      162
 3.0253      154
 3.0303      147
 3.0353      150
 3.0403      138
 3.0453      137
 3.0503      122
 3.0553      136
 3.0603      157
 3.0653      163
 3.0703      160
 3.0753      180
 3.0803      134
 3.0853      168
 3.0903      160
 3.0953      151
 3.1003      167
 3.1053      175
 3.1103      148
 3.1153      162
 3.1203      145
 3.1253      158
 3.1303      146
 3.1353      187
 3.1403      172
 3.1453      178
 3.1503      147
 3.1553      148
 3.1603      166
 3.1653      157
 3.1703      147
 3.1753      171
 3.1803      200
 3.1853      189
 3.1903      173
 3.1953      174
 3.2003      173
 3.2053      177
 3.2103      159
 3.2153      150
 3.2203      183
 3.2253      165
 3.2303      163
 3.2353      185
 3.2403      207
 3.2453      184
 3.2503      198
 3.2553      164
 3.2603      166
 3.2653      176
 3.2703      170
 3.2753      216
 3.2803      221
 3.2853      163
 3.2903      193
 3.2953      217
 3.3003      208
 3.3053      214
 3.3103      197
 3.3153      185
 3.3203      225
 3.3253      181
 3.3303      196
 3.3354      188
 3.3404      228
 3.3454      233
 3.3504      249
 3.3554      212
 3.3604      219
 3.3654      208
 3.3704      213
 3.3754      238
 3.3804      238
 3.3854      212
 3.3904      255
 3.3954      251
 3.4004      266
 3.4054      254
 3.4104      288
 3.4154      267
 3.4204      282
 3.4254      272
 3.4304      276
 3.4354      283
 3.4404      308
 3.4454      276
 3.4504      328
 3.4554      304
 3.4604      299
 3.4654      304
 3.4704      339
 3.4754      297
 3.4804      319
 3.4854      317
 3.4904      360
 3.4954      385
 3.5004      350
 3.5054      371
 3.5104      363
 3.5154      358
 3.5204      390
 3.5254      391
 3.5304      393
 3.5354      378
 3.5404      381
 3.5454      402
 3.5504      435
 3.5554      462
 3.5604      440
 3.5654      505
 3.5704      501
 3.5754      470
 3.5804      502
 3.5854      491
 3.5904      511
 3.5954      507
 3.6004      530
 3.6054      577
 3.6104      537
 3.6154      553
 3.6204      643
 3.6254      566
 3.6304      653
 3.6354      599
 3.6404      651
 3.6454      673
 3.6504      625
 3.6554      668
 3.6604      663
 3.6654      733
 3.6705      748
 3.6755      788
 3.6805      746
 3.6855      839
 3.6905      829
 3.6955      802
 3.7005      819
 3.7055      806
 3.7105      839
 3.7155      934
 3.7205      864
 3.7255      891
 3.7305      854
 3.7355      898
 3.7405      945
 3.7455      986
 3.7505      952
 3.7555     1009
 3.7605      948
 3.7655     1020
 3.7705     1040
 3.7755      992
 3.7805     1069
 3.7855     1149
 3.7905     1057
 3.7955     1138
 3.8005     1166
 3.8055     1134
 3.8105     1133
 3.8155     1223
 3.8205     1257
 3.8255     1262
 3.8305     1305
 3.8355     1294
 3.8405     1294
 3.8455     1321
 3.8505     1418
 3.8555     1505
 3.8605     1461
 3.8655     1453
 3.8705     1586
 3.8755     1558
 3.8805     1524
 3.8855     1623
 3.8905     1605
 3.8955     1639
 3.9005     1655
 3.9055     1794
 3.9105     1733
 3.9155     1787
 3.9205     1772
 3.9255     1825
 3.9305     1853
 3.9355     1914
 3.9405     1908
 3.9455     1967
 3.9505     2039
 3.9555     2072
 3.9605     2066
 3.9655     2085
 3.9705     2186
 3.9755     2231
 3.9805     2269
 3.9855     2288
 3.9905     2299
 3.9955     2423
 4.0005     2381
 4.0056     2414
 4.0106     2457
 4.0156     2541
 4.0206     2480
 4.0256     2530
 4.0306     2683
 4.0356     2602
 4.0406     2698
 4.0456     2736
 4.0506     2821
 4.0556     2813
 4.0606     2856
 4.0656     2889
 4.0706     3025
 4.0756     3037
 4.0806     3103
 4.0856     3195
 4.0906     3033
 4.0956     3120
 4.1006     3277
 4.1056     3222
 4.1106     3268
 4.1156     3427
 4.1206     3398
 4.1256     3478
 4.1306     3496
 4.1356     3550
 4.1406     3682
 4.1456     3543
 4.1506     3741
 4.1556     3734
 4.1606     3841
 4.1656     3829
 4.1706     3880
 4.1756     3994
 4.1806     4016
 4.1856     4025
 4.1906     4108
 4.1956     4169
 4.2006     4297
 4.2056     4304
 4.2106     4343
 4.2156     4416
 4.2206     4468
 4.2256     4481
 4.2306     4504
 4.2356     4483
 4.2406     4607
 4.2456     4719
 4.2506     4878
 4.2556     4752
 4.2606     5005
 4.2656     4988
 4.2706     5139
 4.2756     4985
 4.2806     5216
 4.2856     5244
 4.2906     5238
 4.2956     5324
 4.3006     5377
 4.3056     5559
 4.3106     5536
 4.3156     5476
 4.3206     5541
 4.3256     5657
 4.3306     5816
 4.3357     5837
 4.3407     5898
 4.3457     5888
 4.3507     6000
 4.3557     6005
 4.3607     6060
 4.3657     6178
 4.3707     6284
 4.3757     6437
 4.3807     6400
 4.3857     6516
 4.3907     6469
 4.3957     6492
 4.4007     6605
 4.4057     6786
 4.4107     6687
 4.4157     6616
 4.4207     6980
 4.4257     6867
 4.4307     6838
 4.4357     7062
 4.4407     7329
 4.4457     7218
 4.4507     7260
 4.4557     7516
 4.4607     7581
 4.4657     7418
 4.4707     7582
 4.4757     7545
 4.4807     7596
 4.4857     7666
 4.4907     7885
 4.4957     7885
 4.5007     7887
 4.5057     8119
 4.5107     8067
 4.5157     8293
 4.5207     8262
 4.5257     8348
 4.5307     8227
 4.5357     8537
 4.5407     8681
 4.5457     8593
 4.5507     8474
 4.5557     8594
 4.5607     8945
 4.5657     8682
 4.5707     8821
 4.5757     8949
 4.5807     9074
 4.5857     9214
 4.5907     9148
 4.5957     9017
 4.6007     9315
 4.6057     9194
 4.6107     9402
 4.6157     9393
 4.6207     9460
 4.6257     9553
 4.6307     9710
 4.6357     9855
 4.6407     9739
 4.6457     9960
 4.6507     9942
 4.6557     9909
 4.6607     9997
 4.6657    10086
 4.6708    10123
 4.6758    10279
 4.6808    10353
 4.6858    10327
 4.6908    10454
 4.6958    10453
 4.7008    10591
 4.7058    10548
 4.7108    10718
 4.7158    10672
 4.7208    10690
 4.7258    10749
 4.7308    10773
 4.7358    10981
 4.7408    10928
 4.7458    11049
 4.7508    11181
 4.7558    11178
 4.7608    11435
 4.7658    11339
 4.7708    11262
 4.7758    11462
 4.7808    11422
 4.7858    11791
 4.7908    11673
 4.7958    11594
 4.8008    12017
 4.8058    11746
 4.8108    11701
 4.8158    11896
 4.8208    11932
 4.8258    11813
 4.8308    11858
 4.8358    11911
 4.8408    12068
 4.8458    12077
 4.8508    12350
 4.8558    11976
 4.8608    12279
 4.8658    12311
 4.8708    12285
 4.8758    12199
 4.8808    12179
 4.8858    12491
 4.8908    12479
 4.8958    12343
 4.9008    12665
 4.9058    12689
 4.9108    12954
 4.9158    12813
 4.9208    12894
 4.9258    12984
 4.9308    12636
 4.9358    12957
 4.9408    12966
 4.9458    12944
 4.9508    12672
 4.9558    13060
 4.9608    13172
 4.9658    12956
 4.9708    13232
 4.9758    13261
 4.9808    13284
 4.9858    13184
 4.9908    13077
 4.9958    13226
 5.0008    13257
 5.0059    13187
 5.0109    13467
 5.0159    13285
 5.0209    13115
 5.0259    13391
 5.0309    13332
 5.0359    13393
 5.0409    13331
 5.0459    13589
 5.0509    13258
 5.0559    13301
 5.0609    13556
 5.0659    13472
 5.0709    13633
 5.0759    13517
 5.0809    13381
 5.0859    13732
 5.0909    13442
 5.0959    13408
 5.1009    13642
 5.1059    13509
 5.1109    13530
 5.1159    13401
 5.1209    13528
 5.1259    13451
 5.1309    13570
 5.1359    13576
 5.1409    13490
 5.1459    13357
 5.1509    13598
 5.1559    13622
 5.1609    13684
 5.1659    13495
 5.1709    13580
 5.1759    13635
 5.1809    13597
 5.1859    13634
 5.1909    13630
 5.1959    13549
 5.2009    13704
 5.2059    13756
 5.2109    13732
 5.2159    13795
 5.2209    13627
 5.2259    13656
 5.2309    13629
 5.2359    13700
 5.2409    13668
 5.2459    13688
 5.2509    13483
 5.2559    13594
 5.2609    13731
 5.2659    13987
 5.2709    13517
 5.2759    13478
 5.2809    13597
 5.2859    13676
 5.2909    13856
 5.2959    13789
 5.3009    13928
 5.3059    13880
 5.3109    13865
 5.3159    14045
 5.3209    14125
 5.3259    14162
 5.3309    14344
  5.336    14623
  5.341    14672
  5.346    14725
  5.351    14774
  5.356    15003
  5.361    15254
  5.366    15318
  5.371    15393
  5.376    15334
  5.381    15680
  5.386    15802
  5.391    15802
  5.396    15633
  5.401    15607
  5.406    15961
  5.411    15895
  5.416    15790
  5.421    15724
  5.426    15454
  5.431    15132
  5.436    15116
  5.441    15162
  5.446    15001
  5.451    14621
  5.456    14379
  5.461    14010
  5.466    13892
  5.471    13699
  5.476    13371
  5.481    13128
  5.486    13118
  5.491    12926
  5.496    12680
  5.501    12496
  5.506    12589
  5.511    12504
  5.516    12109
  5.521    12146
  5.526    12141
  5.531    11836
  5.536    11914
  5.541    11700
  5.546    11830
  5.551    11491
  5.556    11544
  5.561    11377
  5.566    11312
  5.571    11445
  5.576    11319
  5.581    11287
  5.586    11288
  5.591    11076
  5.596    10939
  5.601    11062
  5.606    11052
  5.611    11065
  5.616    10769
  5.621    10835
  5.626    10701
  5.631    10620
  5.636    10698
  5.641    10588
  5.646    10548
  5.651    10479
  5.656    10236
  5.661    10407
  5.666    10334
 5.6711    10170
 5.6761    10298
 5.6811     9965
 5.6861     9985
 5.6911     9916
 5.6961     9823
 5.7011     9793
 5.7061     9776
 5.7111     9591
 5.7161     9645
 5.7211     9514
 5.7261     9408
 5.7311     9524
 5.7361     9276
 5.7411     9157
 5.7461     9222
 5.7511     9025
 5.7561     8994
 5.7611     8895
 5.7661     8971
 5.7711     8837
 5.7761     8965
 5.7811     8749
 5.7861     8628
 5.7911     8704
 5.7961     8496
 5.8011     8387
 5.8061     8521
 5.8111     8418
 5.8161     8404
 5.8211     8270
 5.8261     8196
 5.8311     8033
 5.8361     8213
 5.8411     8110
 5.8461     8045
 5.8511     8102
 5.8561     7953
 5.8611     7921
 5.8661     7929
 5.8711     7794
 5.8761     7798
 5.8811     7746
 5.8861     7647
 5.8911     7784
 5.8961     7467
 5.9011     7638
 5.9061     7491
 5.9111     7517
 5.9161     7362
 5.9211     7439
 5.9261     7352
 5.9311     7332
 5.9361     7290
 5.9411     7192
 5.9461     7054
 5.9511     6968
 5.9561     6896
 5.9611     6815
 5.9661     6713
 5.9711     6637
 5.9761     6494
 5.9811     6401
 5.9861     6342
 5.9911     6181
 5.9961     6027
 6.0011     6044
 6.0062     5956
 6.0112     5797
 6.0162     5731
 6.0212     5429
 6.0262     5376
 6.0312     5304
 6.0362     5241
 6.0412     5102
 6.0462     5027
 6.0512     4860
 6.0562     4957
 6.0612     4864
 6.0662     4738
 6.0712     4672
 6.0762     4626
 6.0812     4470
 6.0862     4470
 6.0912     4387
 6.0962     4405
 6.1012     4214
 6.1062     4168
 6.1112     3976
 6.1162     4079
 6.1212     4058
 6.1262     3909
 6.1312     3964
 6.1362     3786
 6.1412     3689
 6.1462     3724
 6.1512     3636
 6.1562     3652
 6.1612     3513
 6.1662     3477
 6.1712     3360
 6.1762     3318
 6.1812     3290
 6.1862     3176
 6.1912     3148
 6.1962     3160
 6.2012     2975
 6.2062     3054
 6.2112     3012
 6.2162     2881
 6.2212     2962
 6.2262     2860
 6.2312     2798
 6.2362     2727
 6.2412     2678
 6.2462     2581
 6.2512     2575
 6.2562     2499
 6.2612     2513
 6.2662     2439
 6.2712     2368
 6.2762     2383
 6.2812     2196
 6.2862     2222
 6.2912     2162
 6.2962     2124
 6.3012     2121
 6.3062     2123
 6.3112     1981
 6.3162     1973
 6.3212     1882
 6.3262     1844
 6.3312     1822
 6.3363     1723
 6.3413     1820
 6.3463     1737
 6.3513     1727
 6.3563     1641
 6.3613     1658
 6.3663     1601
 6.3713     1562
 6.3763     1561
 6.3813     1525
 6.3863     1507
 6.3913     1461
 6.3963     1421
 6.4013     1311
 6.4063     1431
 6.4113     1359
 6.4163     1278
 6.4213     1266
 6.4263     1176
 6.4313     1168
 6.4363     1164
 6.4413     1197
 6.4463     1093
 6.4513     1104
 6.4563     1147
 6.4613     1038
 6.4663      960
 6.4713      974
 6.4763      944
 6.4813      976
 6.4863      905
 6.4913      923
 6.4963      912
 6.5013      856
 6.5063      814
 6.5113      793
 6.5163      794
 6.5213      716
 6.5263      738
 6.5313      745
 6.5363      730
 6.5413      657
 6.5463      668
 6.5513      674
 6.5563      694
 6.5613      633
 6.5663      601
 6.5713      599
 6.5763      579
 6.5813      569
 6.5863      584
 6.5913      618
 6.5963      574
 6.6013      542
 6.6063      578
 6.6113      548
 6.6163      564
 6.6213      570
 6.6263      512
 6.6313      531
 6.6363      534
 6.6413      535
 6.6463      531
 6.6513      519
 6.6563      493
 6.6613      542
 6.6663      516
 6.6714      504
 6.6764      500
 6.6814      531
 6.6864      489
 6.6914      496
 6.6964      498
 6.7014      481
 6.7064      494
 6.7114      471
 6.7164      472
 6.7214      481
 6.7264      506
 6.7314      495
 6.7364      479
 6.7414      476
 6.7464      453
 6.7514      483
 6.7564      446
 6.7614      459
 6.7664      450
 6.7714      457
 6.7764      423
 6.7814      433
 6.7864      430
 6.7914      471
 6.7964      441
 6.8014      415
 6.8064      440
 6.8114      435
 6.8164      446
 6.8214      450
 6.8264      434
 6.8314      436
 6.8364      440
 6.8414      393
 6.8464      438
 6.8514      412
 6.8564      388
 6.8614      388
 6.8664      384
 6.8714      379
 6.8764      371
 6.8814      345
 6.8864      337
 6.8914      343
 6.8964      331
 6.9014      319
 6.9064      277
 6.9114      285
 6.9164      260
 6.9214      238
 6.9264      244
 6.9314      194
 6.9364      210
 6.9414      188
 6.9464      177
 6.9514      165
 6.9564      156
 6.9614      143
 6.9664      130
 6.9714      135
 6.9764      119
 6.9814      128
 6.9864      107
 6.9914      105
 6.9964      117
 7.0014       89
 7.0065       95
 7.0115      102
 7.0165       96
 7.0215       84
 7.0265       90
 7.0315       76
 7.0365      102
 7.0415       93
 7.0465       94
 7.0515       96
 7.0565       85
 7.0615      104
 7.0665      110
 7.0715       83
 7.0765      121
 7.0815      111
 7.0865      123
 7.0915      125
 7.0965      128
 7.1015      111
 7.1065      138
 7.1115      137
 7.1165      112
 7.1215      143
 7.1265      121
 7.1315      149
 7.1365      172
 7.1415      168
 7.1465      153
 7.1515      167
 7.1565      167
 7.1615      183
 7.1665      194
 7.1715      171
 7.1765      199
 7.1815      223
 7.1865      175
 7.1915      212
 7.1965      220
 7.2015      227
 7.2065      237
 7.2115      247
 7.2165      235
 7.2215      260
 7.2265      251
 7.2315      243
 7.2365      264
 7.2415      270
 7.2465      278
 7.2515      302
 7.2565      319
 7.2615      320
 7.2665      321
 7.2715      307
 7.2765      324
 7.2815      319
 7.2865      395
 7.2915      326
 7.2965      377
 7.3015      364
 7.3065      388
 7.3115      414
 7.3165      399
 7.3215      416
 7.3265      467
 7.3315      444
 7.3366      421
 7.3416      442
 7.3466      450
 7.3516      507
 7.3566      521
 7.3616      501
 7.3666      506
 7.3716      510
 7.3766      509
 7.3816      516
 7.3866      472
 7.3916      485
 7.3966      530
 7.4016      499
 7.4066      491
 7.4116      467
 7.4166      466
 7.4216      438
 7.4266      391
 7.4316      424
 7.4366      334
 7.4416      385
 7.4466      358
 7.4516      348
 7.4566      344
 7.4616      320
 7.4666      296
 7.4716      248
 7.4766      252
 7.4816      230
 7.4866      231
 7.4916      149
 7.4966      167
 7.5016      153
 7.5066      117
 7.5116      121
 7.5166      105
 7.5216       79
 7.5266       79
 7.5316       72
 7.5366       81
 7.5416       42
 7.5466       63
 7.5516       52
 7.5566       44
 7.5616       45
 7.5666       33
 7.5716       29
 7.5766       29
 7.5816       21
 7.5866        8
 7.5916       15
 7.5966       13
 7.6016        8
 7.6066        8
 7.6116        9
 7.6166        7
 7.6216       10
 7.6266       11
 7.6316        6
 7.6366        6
 7.6416        7
 7.6466        5
 7.6516        7
 7.6566        4
 7.6616        3
 7.6666        6
 7.6717        2
 7.6767        4
 7.6817        8
 7.6867        6
 7.6917        2
 7.6967        3
 7.7017        5
 7.7067        3
 7.7117        3
 7.7167        2
 7.7217        2
 7.7267        2
 7.7317        4
 7.7367        2
 7.7417        2
 7.7467        3
 7.7517        1
 7.7567        4
 7.7617        7
 7.7667        5
 7.7717        9
 7.7767        8
 7.7817        2
 7.7867        4
 7.7917        4
 7.7967        6
 7.8017        8
 7.8067        5
 7.8117        6
 7.8167        5
 7.8217        3
 7.8267        4
 7.8317        8
 7.8367        4
 7.8417        4
 7.8467        5
 7.8517        3
 7.8567        8
 7.8617        4
 7.8667        3
 7.8717        7
 7.8767        8
 7.8817        1
 7.8867        2
 7.8917        1
 7.8967        4
 7.9017        3
 7.9067        1
 7.9117        3
 7.9167        4
 7.9217        7
 7.9267        0
 7.9317        4
 7.9367        2
 7.9417        2
 7.9467        3
 7.9517        3
 7.9567        1
 7.9617        4
 7.9667        2
 7.9717        4
 7.9767        4
 7.9817        0
 7.9867        5
 7.9917        3
 7.9967        0
 8.0017        0
 8.0068        4
 8.0118        1
 8.0168        2
 8.0218        1
 8.0268        5
 8.0318        1
 8.0368        2
 8.0418        1
 8.0468        2
 8.0518        3
 8.0568        3
 8.0618        1
 8.0668        0
 8.0718        4
 8.0768        3
 8.0818        1
 8.0868        2
 8.0918        0
 8.0968        0
 8.1018        2
 8.1068        2
 8.1118        1
 8.1168        0
 8.1218        1
 8.1268        2
 8.1318        0
 8.1368        0
 8.1418        2
 8.1468        2
 8.1518        1
 8.1568        2
 8.1618        2
 8.1668        1
 8.1718        3
 8.1768        1
 8.1818        1
 8.1868        0
 8.1918        1
 8.1968        0
 8.2018        2
 8.2068        2
 8.2118        0
 8.2168        1
 8.2218        0
 8.2268        0
 8.2318        1
 8.2368        0
 8.2418        1
 8.2468        0
 8.2518        0
 8.2568        2
 8.2618        1
 8.2668        1
 8.2718        1
 8.2768        1
 8.2818        0
 8.2868        2
 8.2918        1
 8.2968        0
 8.3018        0
 8.3068        1
 8.3118        0
 8.3168        1
 8.3218        0
 8.3268        1
 8.3318        1
 8.3369        1
 8.3419        1
 8.3469        0
 8.3519        1
 8.3569        1
 8.3619        0
 8.3669        0
 8.3719        1
 8.3769        0
 8.3819        1
 8.3869        2
 8.3919        0
 8.3969        1
 8.4019        1
 8.4069        2
 8.4119        1
 8.4169        0
 8.4219        0
 8.4269        1
 8.4319        0
 8.4369        1
 8.4419        0
 8.4469        0
 8.4519        2
 8.4569        0
 8.4619        1
 8.4669        1
 8.4719        2
 8.4769        0
 8.4819        1
 8.4869        1
 8.4919        1
 8.4969        1
 8.5019        3
 8.5069        0
 8.5119        0
 8.5169        3
 8.5219        2
 8.5269        1
 8.5319        2
 8.5369        2
 8.5419        0
 8.5469        3
 8.5519        0
 8.5569        1
 8.5619        0
 8.5669        0
 8.5719        1
 8.5769        0
 8.5819        0
 8.5869        0
 8.5919        1
 8.5969        1
 8.6019        3
 8.6069        1
 8.6119        1
 8.6169        1
 8.6219        1
 8.6269        0
 8.6319        0
 8.6369        1
 8.6419        2
 8.6469        1
 8.6519        2
 8.6569        2
 8.6619        0
 8.6669        1
  8.672        0
  8.677        3
  8.682        0
  8.687        2
  8.692        0
  8.697        1
  8.702        1
  8.707        2
  8.712        0
  8.717        3
  8.722        1
  8.727        1
  8.732        2
  8.737        0
  8.742        1
  8.747        1
  8.752        1
  8.757        1
  8.762        5
  8.767        1
  8.772        1
  8.777        4
  8.782        0
  8.787        3
  8.792        3
  8.797        2
  8.802        3
  8.807        1
  8.812        2
  8.817        0
  8.822        3
  8.827        1
  8.832        1
  8.837        3
  8.842        1
  8.847        2
  8.852        3
  8.857        1
  8.862        1
  8.867        1
  8.872        2
  8.877        2
  8.882        1
  8.887        1
  8.892        1
  8.897        1
  8.902        4
  8.907        0
  8.912        0
  8.917        1
  8.922        2
  8.927        1
  8.932        0
  8.937        1
  8.942        4
  8.947        0
  8.952        3
  8.957        4
  8.962        3
  8.967        1
  8.972        0
  8.977        1
  8.982        1
  8.987        1
  8.992        3
  8.997        1
  9.002        2
 9.0071        2
 9.0121        1
 9.0171        1
 9.0221        1
 9.0271        3
 9.0321        0
 9.0371        1
 9.0421        1
 9.0471        0
 9.0521        2
 9.0571        1
 9.0621        0
 9.0671        1
 9.0721        2
 9.0771        0
 9.0821        0
 9.0871        3
 9.0921        1
 9.0971        2
 9.1021        4
 9.1071        1
 9.1121        0
 9.1171        3
 9.1221        0
 9.1271        1
 9.1321        0
 9.1371        0
 9.1421        0
 9.1471        1
 9.1521        0
 9.1571        2
 9.1621        0
 9.1671        3
 9.1721        0
 9.1771        2
 9.1821        0
 9.1871        2
 9.1921        1
 9.1971        2
 9.2021        0
 9.2071        2
 9.2121        0
 9.2171        0
 9.2221        0
 9.2271        2
 9.2321        1
 9.2371        1
 9.2421        1
 9.2471        1
 9.2521        0
 9.2571        0
 9.2621        1
 9.2671        0
 9.2721        0
 9.2771        1
 9.2821        0
 9.2871        1
 9.2921        0
 9.2971        0
 9.3021        1
 9.3071        1
 9.3121        0
 9.3171        0
 9.3221        1
 9.3271        0
 9.3321        1
 9.3372        0
 9.3422        0
 9.3472        1
 9.3522        1
 9.3572        1
 9.3622        0
 9.3672        1
 9.3722        2
 9.3772        2
 9.3822        1
 9.3872        1
 9.3922        0
 9.3972        1
 9.4022        1
 9.4072        0
 9.4122        3
 9.4172        0
 9.4222        0
 9.4272        1
 9.4322        1
 9.4372        0
 9.4422        1
 9.4472        0
 9.4522        1
 9.4572        3
 9.4622        0
 9.4672        1
 9.4722        0
 9.4772        1
 9.4822        0
 9.4872        1
 9.4922        0
 9.4972        0
 9.5022        0
 9.5072        1
 9.5122        0
 9.5172        0
 9.5222        1
 9.5272        0
 9.5322        0
 9.5372        1
 9.5422        0
 9.5472        0
 9.5522        2
 9.5572        2
 9.5622        1
 9.5672        0
 9.5722        0
 9.5772        0
 9.5822        1
 9.5872        1
 9.5922        1
 9.5972        1
 9.6022        2
 9.6072        0
 9.6122        0
 9.6172        0
 9.6222        2
 9.6272        0
 9.6322        1
 9.6372        1
 9.6422        0
 9.6472        0
 9.6522        0
 9.6572        1
 9.6622        0
 9.6672        0
 9.6723        0
 9.6773        0
 9.6823        0
 9.6873        0
 9.6923        0
 9.6973        2
 9.7023        1
 9.7073        0
 9.7123        0
 9.7173        0
 9.7223        0
 9.7273        1
 9.7323        1
 9.7373        0
 9.7423        1
 9.7473        0
 9.7523        0
 9.7573        0
 9.7623        0
 9.7673        1
 9.7723        0
 9.7773        0
 9.7823        0
 9.7873        0
 9.7923        0
 9.7973        0
 9.8023        2
 9.8073        2
 9.8123        0
 9.8173        0
 9.8223        0
 9.8273        1
 9.8323        1
 9.8373        0
 9.8423        0
 9.8473        0
 9.8523        0
 9.8573        1
 9.8623        0
 9.8673        0
 9.8723        0
 9.8773        0
 9.8823        0
 9.8873        0
 9.8923        1
 9.8973        0
 9.9023        0
 9.9073        0
 9.9123        0
 9.9173        1
 9.9223        2
 9.9273        1
 9.9323        0
 9.9373        0
 9.9423        0
 9.9473        0
 9.9523        0
 9.9573        0
 9.9623        0
 9.9673        0
 9.9723        0
 9.9773        0
 9.9823        1
 9.9873        1
 9.9923        0
 9.9973        1
10.0023        0
10.0074        0
10.0124        0
10.0174        0
10.0224        1
10.0274        0
10.0324        0
10.0374        0
10.0424        0
10.0474        0
10.0524        1
10.0574        1
10.0624        0
10.0674        0
10.0724        0
10.0774        0
10.0824        1
10.0874        0
10.0924        0
10.0974        0
10.1024        1
10.1074        1
10.1124        0
10.1174        0
10.1224        1
10.1274        0
10.1324        0
10.1374        0
10.1424        1
10.1474        0
10.1524        2
10.1574        1
10.1624        0
10.1674        0
10.1724        0
10.1774        0
10.1824        1
10.1874        0
10.1924        0
10.1974        0
10.2024        0
10.2074        1
10.2124        1
10.2174        0
10.2224        0
10.2274        1
10.2324        0
10.2374        0
10.2424        0
10.2474        0
10.2524        0
10.2574        0
10.2624        0
10.2674        1
10.2724        0
10.2774        1
10.2824        0
10.2874        1
10.2924        0
10.2974        0
10.3024        1
10.3074        1
10.3124        1
10.3174        0
10.3224        1
10.3274        1
10.3324        0
10.3375        0
10.3425        2
10.3475        0
10.3525        0
10.3575        0
10.3625        0
10.3675        1
10.3725        0
10.3775        0
10.3825        0
10.3875        3
10.3925        3
10.3975        1
10.4025        0
10.4075        1
10.4125        1
10.4175        2
10.4225        1
10.4275        2
10.4325        6
10.4375        5
10.4425        2
10.4475       10
10.4525        7
10.4575        7
10.4625       15
10.4675       16
10.4725       10
10.4775       15
10.4825       14
10.4875       14
10.4925       16
10.4975       18
10.5025       28
10.5075       31
10.5125       26
10.5175       29
10.5225       37
10.5275       45
10.5325       35
10.5375       40
10.5425       52
10.5475       69
10.5525       47
10.5575       67
10.5625       46
10.5675       65
10.5725       74
10.5775       82
10.5825       66
10.5875       90
10.5925       85
10.5975       77
10.6025       92
10.6075       90
10.6125       71
10.6175       91
10.6225       81
10.6275      100
10.6325       97
10.6375       60
10.6425       82
10.6475       89
10.6525       79
10.6575       78
10.6625       71
10.6675       72
10.6726       66
10.6776       54
10.6826       55
10.6876       51
10.6926       56
10.6976       28
10.7026       32
10.7076       44
10.7126       42
10.7176       37
10.7226       29
10.7276       17
10.7326       22
10.7376       23
10.7426       15
10.7476       13
10.7526       13
10.7576       20
10.7626       14
10.7676        7
10.7726        5
10.7776        7
10.7826        2
10.7876        6
10.7926        7
10.7976        2
10.8026        4
10.8076        4
10.8126        4
10.8176        3
10.8226        2
10.8276        1
10.8326        7
10.8376        2
10.8426        1
10.8476        0
10.8526        4
10.8576        5
10.8626        1
10.8676        2
10.8726        4
10.8776        7
10.8826        5
10.8876        2
10.8926        2
10.8976        5
10.9026        4
10.9076        2
10.9126        3
10.9176        6
10.9226        6
10.9276        1
10.9326        6
10.9376        3
10.9426        5
10.9476        3
10.9526        5
10.9576        4
10.9626        3
10.9676        2
10.9726        1
10.9776        3
10.9826        1
10.9876        4
10.9926        1
10.9976        3
11.0026        2
11.0077        4
11.0127        3
11.0177        3
11.0227        2
11.0277        3
11.0327        2
11.0377        1
11.0427        0
11.0477        3
11.0527        0
11.0577        0
11.0627        1
11.0677        0
11.0727        0
11.0777        1
11.0827        2
11.0877        0
11.0927        1
11.0977        1
11.1027        0
11.1077        0
11.1127        1
11.1177        1
11.1227        0
11.1277        0
11.1327        1
11.1377        0
11.1427        0
11.1477        0
11.1527        2
11.1577        0
11.1627        1
11.1677        0
11.1727        1
11.1777        0
11.1827        0
11.1877        3
11.1927        1
11.1977        0
11.2027        0
11.2077        0
11.2127        0
11.2177        0
11.2227        0
11.2277        2
11.2327        0
11.2377        0
11.2427        1
11.2477        0
11.2527        1
11.2577        1
11.2627        0
11.2677        0
11.2727        0
11.2777        2
11.2827        0
11.2877        0
11.2927        0
11.2977        1
11.3027        0
11.3077        0
11.3127        1
11.3177        0
11.3227        2
11.3277        0
11.3327        1
11.3378        1
11.3428        1
11.3478        1
11.3528        1
11.3578        0
11.3628        0
11.3678        1
11.3728        0
11.3778        0
11.3828        0
11.3878        0
11.3928        0
11.3978        0
11.4028        0
11.4078        0
11.4128        0
11.4178        3
11.4228        1
11.4278        0
11.4328        0
11.4378        0
11.4428        0
11.4478        0
11.4528        0
11.4578        2
11.4628        0
11.4678        1
11.4728        1
11.4778        0
11.4828        0
11.4878        1
11.4928        0
11.4978        0
11.5028        2
11.5078        1
11.5128        0
11.5178        0
11.5228        0
11.5278        0
11.5328        0
11.5378        1
11.5428        0
11.5478        0
11.5528        0
11.5578        0
11.5628        1
11.5678        0
11.5728        0
11.5778        0
11.5828        0
11.5878        0
11.5928        0
11.5978        0
11.6028        0
11.6078        0
11.6128        0
11.6178        2
11.6228        0
11.6278        0
11.6328        0
11.6378        0
11.6428        0
11.6478        1
11.6528        0
11.6578        1
11.6628        0
11.6678        1
11.6729        0
11.6779        1
11.6829        0
11.6879        1
11.6929        0
11.6979        0
11.7029        1
11.7079        0
11.7129        0
11.7179        0
11.7229        0
11.7279        0
11.7329        0
11.7379        0
11.7429        0
11.7479        1
11.7529        0
11.7579        0
11.7629        0
11.7679        1
11.7729        1
11.7779        0
11.7829        0
11.7879        0
11.7929        0
11.7979        0
11.8029        0
11.8079        1
11.8129        0
11.8179        1
11.8229        0
11.8279        1
11.8329        0
11.8379        0
11.8429        0
11.8479        0
11.8529        0
11.8579        1
11.8629        1
11.8679        0
11.8729        1
11.8779        1
11.8829        0
11.8879        0
11.8929        0
11.8979        0
11.9029        1
11.9079        1
11.9129        0
11.9179        0
11.9229        0
11.9279        1
11.9329        0
11.9379        2
11.9429        0
11.9479        0
11.9529        0
11.9579        0
11.9629        1
11.9679        0
11.9729        0
11.9779        1
11.9829        0
11.9879        1
11.9929        1
11.9979        0
12.0029        0
 12.008        0
 12.013        0
 12.018        0
 12.023        0
 12.028        0
 12.033        0
 12.038        0
 12.043        0
 12.048        0
 12.053        0
 12.058        0
 12.063        1
 12.068        0
 12.073        1
 12.078        0
 12.083        0
 12.088        0
 12.093        1
 12.098        0
 12.103        0
 12.108        0
 12.113        1
 12.118        0
 12.123        0
 12.128        0
 12.133        0
 12.138        0
 12.143        0
 12.148        0
 12.153        0
 12.158        0
 12.163        0
 12.168        0
 12.173        0
 12.178        0
 12.183        0
 12.188        0
 12.193        1
 12.198        0
 12.203        0
 12.208        0
 12.213        1
 12.218        0
 12.223        0
 12.228        0
 12.233        0
 12.238        0
 12.243        0
 12.248        2
 12.253        1
 12.258        0
 12.263        0
 12.268        0
 12.273        0
 12.278        0
 12.283        1
 12.288        0
 12.293        0
 12.298        0
 12.303        1
 12.308        0
 12.313        0
 12.318        1
 12.323        1
 12.328        1
 12.333        0
12.3381        0
12.3431        0
12.3481        1
12.3531        1
12.3581        1
12.3631        1
12.3681        2
12.3731        0
12.3781        0
12.3831        0
12.3881        0
12.3931        2
12.3981        0
12.4031        0
12.4081        1
12.4131        0
12.4181        0
12.4231        0
12.4281        0
12.4331        0
12.4381        0
12.4431        0
12.4481        2
12.4531        0
12.4581        0
12.4631        0
12.4681        0
12.4731        0
12.4781        1
12.4831        1
12.4881        1
12.4931        1
12.4981        0
12.5031        0
12.5081        0
12.5131        0
12.5181        0
12.5231        0
12.5281        0
12.5331        1
12.5381        1
12.5431        1
12.5481        0
12.5531        1
12.5581        0
12.5631        0
12.5681        2
12.5731        0
12.5781        0
12.5831        0
12.5881        1
12.5931        0
12.5981        2
12.6031        1
12.6081        1
12.6131        0
12.6181        0
12.6231        1
12.6281        1
12.6331        0
12.6381        0
12.6431        1
12.6481        1
12.6531        1
12.6581        1
12.6631        0
12.6681        1
12.6732        0
12.6782        0
12.6832        0
12.6882        0
12.6932        0
12.6982        0
12.7032        0
12.7082        0
12.7132        0
12.7182        0
12.7232        0
12.7282        0
12.7332        0
12.7382        0
12.7432        1
12.7482        1
12.7532        0
12.7582        0
12.7632        1
12.7682        0
12.7732        0
12.7782        0
12.7832        1
12.7882        0
12.7932        2
12.7982        1
12.8032        1
12.8082        0
12.8132        1
12.8182        0
12.8232        0
12.8282        0
12.8332        2
12.8382        1
12.8432        0
12.8482        1
12.8532        0
12.8582        1
12.8632        0
12.8682        0
12.8732        1
12.8782        0
12.8832        1
12.8882        3
12.8932        0
12.8982        0
12.9032        1
12.9082        1
12.9132        0
12.9182        0
12.9232        2
12.9282        1
12.9332        0
12.9382        0
12.9432        1
12.9482        0
12.9532        1
12.9582        0
12.9632        2
12.9682        1
12.9732        2
12.9782        1
12.9832        1
12.9882        0
12.9932        1
12.9982        1
13.0032        1
13.0083        0
13.0133        1
13.0183        1
13.0233        2
13.0283        0
13.0333        0
13.0383        0
13.0433        0
13.0483        0
13.0533        0
13.0583        1
13.0633        0
13.0683        0
13.0733        1
13.0783        2
13.0833        1
13.0883        0
13.0933        0
13.0983        0
13.1033        1
13.1083        0
13.1133        1
13.1183        1
13.1233        1
13.1283        0
13.1333        0
13.1383        0
13.1433        0
13.1483        2
13.1533        0
13.1583        1
13.1633        2
13.1683        1
13.1733        1
13.1783        0
13.1833        0
13.1883        1
13.1933        0
13.1983        0
13.2033        1
13.2083        1
13.2133        1
13.2183        0
13.2233        0
13.2283        0
13.2333        0
13.2383        0
13.2433        0
13.2483        0
13.2533        0
13.2583        0
13.2633        0
13.2683        1
13.2733        0
13.2783        1
13.2833        0
13.2883        0
13.2933        2
13.2983        0
13.3033        1
13.3083        0
13.3133        0
13.3183        0
13.3233        0
13.3283        0
13.3333        0
13.3384        0
13.3434        0
13.3484        1
13.3534        1
13.3584        0
13.3634        0
13.3684        0
13.3734        1
13.3784        0
13.3834        1
13.3884        0
13.3934        0
13.3984        2
13.4034        0
13.4084        1
13.4134        0
13.4184        0
13.4234        0
13.4284        0
13.4334        0
13.4384        0
13.4434        1
13.4484        0
13.4534        0
13.4584        0
13.4634        0
13.4684        0
13.4734        0
13.4784        0
13.4834        2
13.4884        0
13.4934        1
13.4984        1
13.5034        0
13.5084        0
13.5134        0
13.5184        1
13.5234        1
13.5284        0
13.5334        2
13.5384        0
13.5434        0
13.5484        0
13.5534        1
13.5584        0
13.5634        0
13.5684        0
13.5734        1
13.5784        1
13.5834        0
13.5884        1
13.5934        0
13.5984        1
13.6034        0
13.6084        0
13.6134        0
13.6184        0
13.6234        1
13.6284        2
13.6334        0
13.6384        0
13.6434        1
13.6484        1
13.6534        1
13.6584        0
13.6634        0
13.6684        0
13.6735        0
13.6785        1
13.6835        0
13.6885        1
13.6935        0
13.6985        0
13.7035        1
13.7085        0
13.7135        0
13.7185        1
13.7235        0
13.7285        2
13.7335        0
13.7385        0
13.7435        1
13.7485        0
13.7535        1
13.7585        0
13.7635        1
13.7685        0
13.7735        0
13.7785        0
13.7835        0
13.7885        0
13.7935        0
13.7985        0
13.8035        0
13.8085        0
13.8135        0
13.8185        0
13.8235        0
13.8285        0
13.8335        0
13.8385        0
13.8435        0
13.8485        0
13.8535        0
13.8585        1
13.8635        0
13.8685        1
13.8735        3
13.8785        1
13.8835        0
13.8885        0
13.8935        0
13.8985        1
13.9035        0
13.9085        0
13.9135        0
13.9185        0
13.9235        0
13.9285        0
13.9335        0
13.9385        1
13.9435        0
13.9485        0
13.9535        0
13.9585        0
13.9635        1
13.9685        0
13.9735        0
13.9785        0
13.9835        0
13.9885        0
13.9935        0
13.9985        0
14.0035        2
14.0086        0
14.0136        0
14.0186        0
14.0236        0
14.0286        0
14.0336        0
14.0386        1
14.0436        0
14.0486        0
14.0536        1
14.0586        1
14.0636        0
14.0686        0
14.0736        0
14.0786        0
14.0836        0
14.0886        0
14.0936        0
14.0986        0
14.1036        0
14.1086        0
14.1136        1
14.1186        1
14.1236        0
14.1286        1
14.1336        0
14.1386        0
14.1436        0
14.1486        0
14.1536        0
14.1586        0
14.1636        0
14.1686        1
14.1736        0
14.1786        0
14.1836        0
14.1886        0
14.1936        0
14.1986        0
14.2036        0
14.2086        0
14.2136        2
14.2186        0
14.2236        0
14.2286        0
14.2336        0
14.2386        0
14.2436        1
14.2486        1
14.2536        0
14.2586        1
14.2636        0
14.2686        0
14.2736        2
14.2786        0
14.2836        0
14.2886        1
14.2936        1
14.2986        0
14.3036        1
14.3086        0
14.3136        0
14.3186        1
14.3236        0
14.3286        0
14.3336        0
14.3387        0
14.3437        1
14.3487        0
14.3537        0
14.3587        0
14.3637        0
14.3687        0
14.3737        1
14.3787        0
14.3837        0
14.3887        1
14.3937        0
14.3987        0
14.4037        1
14.4087        0
14.4137        0
14.4187        0
14.4237        0
14.4287        0
14.4337        1
14.4387        0
14.4437        0
14.4487        1
14.4537        0
14.4587        0
14.4637        0
14.4687        0
14.4737        0
14.4787        0
14.4837        2
14.4887        1
14.4937        1
14.4987        1
14.5037        0
14.5087        0
14.5137        1
14.5187        0
14.5237        0
14.5287        0
14.5337        0
14.5387        0
14.5437        1
14.5487        0
14.5537        0
14.5587        0
14.5637        0
14.5687        1
14.5737        0
14.5787        0
14.5837        1
14.5887        1
14.5937        0
14.5987        2
14.6037        0
14.6087        1
14.6137        0
14.6187        0
14.6237        0
14.6287        0
14.6337        0
14.6387        0
14.6437        0
14.6487        0
14.6537        0
14.6587        1
14.6637        0
14.6687        0
14.6738        1
14.6788        0
14.6838        0
14.6888        0
14.6938        0
14.6988        1
14.7038        0
14.7088        1
14.7138        0
14.7188        0
14.7238        0
14.7288        2
14.7338        0
14.7388        0
14.7438        0
14.7488        0
14.7538        2
14.7588        0
14.7638        1
14.7688        0
14.7738        0
14.7788        0
14.7838        1
14.7888        0
14.7938        0
14.7988        0
14.8038        1
14.8088        0
14.8138        0
14.8188        0
14.8238        1
14.8288        0
14.8338        0
14.8388        1
14.8438        1
14.8488        0
14.8538        0
14.8588        0
14.8638        0
14.8688        0
14.8738        1
14.8788        0
14.8838        1
14.8888        0
14.8938        0
14.8988        0
14.9038        0
14.9088        0
14.9138        2
14.9188        0
14.9238        0
14.9288        0
14.9338        1
14.9388        2
14.9438        0
14.9488        2
14.9538        0
14.9588        1
14.9638        0
14.9688        0
14.9738        1
14.9788        1
14.9838        0
14.9888        0
14.9938        0
14.9988        0
15.0038        0
15.0089        0
15.0139        0
15.0189        1
15.0239        0
15.0289        0
15.0339        1
15.0389        1
15.0439        0
15.0489        0
15.0539        0
15.0589        1
15.0639        0
15.0689        1
15.0739        0
15.0789        0
15.0839        2
15.0889        0
15.0939        1
15.0989        1
15.1039        0
15.1089        1
15.1139        0
15.1189        0
15.1239        1
15.1289        0
15.1339        0
15.1389        1
15.1439        0
15.1489        0
15.1539        0
15.1589        1
15.1639        0
15.1689        1
15.1739        0
15.1789        1
15.1839        1
15.1889        1
15.1939        0
15.1989        0
15.2039        0
15.2089        0
15.2139        1
15.2189        1
15.2239        0
15.2289        1
15.2339        1
15.2389        0
15.2439        0
15.2489        0
15.2539        0
15.2589        0
15.2639        0
15.2689        0
15.2739        2
15.2789        0
15.2839        1
15.2889        0
15.2939        3
15.2989        1
15.3039        1
15.3089        0
15.3139        1
15.3189        0
15.3239        1
15.3289        0
15.3339        0
 15.339        1
 15.344        0
 15.349        0
 15.354        0
 15.359        0
 15.364        0
 15.369        0
 15.374        1
 15.379        1
 15.384        0
 15.389        0
 15.394        0
 15.399        1
 15.404        2
 15.409        1
 15.414        0
 15.419        0
 15.424        0
 15.429        1
 15.434        0
 15.439        1
 15.444        0
 15.449        0
 15.454        0
 15.459        0
 15.464        1
 15.469        0
 15.474        0
 15.479        0
 15.484        0
 15.489        0
 15.494        1
 15.499        1
 15.504        1
 15.509        0
 15.514        1
 15.519        2
 15.524        1
 15.529        1
 15.534        2
 15.539        0
 15.544        5
 15.549        2
 15.554        1
 15.559        2
 15.564        0
 15.569        0
 15.574        2
 15.579        1
 15.584        3
 15.589        0
 15.594        1
 15.599        1
 15.604        1
 15.609        0
 15.614        1
 15.619        8
 15.624        1
 15.629        2
 15.634        0
 15.639        2
 15.644        4
 15.649        2
 15.654        2
 15.659        6
 15.664        2
 15.669        6
15.6741        3
15.6791        4
15.6841        3
15.6891        2
15.6941        4
15.6991        3
15.7041        2
15.7091        2
15.7141        6
15.7191        3
15.7241        3
15.7291        1
15.7341        1
15.7391        5
15.7441        4
15.7491        2
15.7541        2
15.7591        3
15.7641        3
15.7691        2
15.7741        3
15.7791        0
15.7841        4
15.7891        0
15.7941        1
15.7991        1
15.8041        1
15.8091        1
15.8141        3
15.8191        1
15.8241        1
15.8291        1
15.8341        0
15.8391        4
15.8441        0
15.8491        1
15.8541        2
15.8591        1
15.8641        1
15.8691        0
15.8741        0
15.8791        1
15.8841        0
15.8891        0
15.8941        1
15.8991        0
15.9041        1
15.9091        2
15.9141        1
15.9191        0
15.9241        0
15.9291        1
15.9341        0
15.9391        0
15.9441        0
15.9491        0
15.9541        0
15.9591        2
15.9641        0
15.9691        0
15.9741        1
15.9791        0
15.9841        0
15.9891        1
15.9941        0
15.9991        1
16.0041        0
16.0092        0
16.0142        1
16.0192        1
16.0242        1
16.0292        1
16.0342        0
16.0392        0
16.0442        1
16.0492        1
16.0542        2
16.0592        0
16.0642        0
16.0692        0
16.0742        2
16.0792        0
16.0842        0
16.0892        1
16.0942        0
16.0992        0
16.1042        1
16.1092        1
16.1142        0
16.1192        2
16.1242        0
16.1292        0
16.1342        3
16.1392        1
16.1442        1
16.1492        1
16.1542        0
16.1592        1
16.1642        0
16.1692        1
16.1742        0
16.1792        0
16.1842        1
16.1892        2
16.1942        1
16.1992        0
16.2042        1
16.2092        1
16.2142        0
16.2192        2
16.2242        0
16.2292        0
16.2342        2
16.2392        2
16.2442        0
16.2492        0
16.2542        0
16.2592        0
16.2642        0
16.2692        0
16.2742        0
16.2792        2
16.2842        2
16.2892        1
16.2942        1
16.2992        0
16.3042        0
16.3092        0
16.3142        0
16.3192        0
16.3242        1
16.3292        1
16.3342        0
16.3393        0
16.3443        0
16.3493        0
16.3543        0
16.3593        0
16.3643        1
16.3693        0
16.3743        0
16.3793        0
16.3843        1
16.3893        1
16.3943        0
16.3993        0
16.4043        0
16.4093        0
16.4143        0
16.4193        0
16.4243        1
16.4293        0
16.4343        1
16.4393        0
16.4443        3
16.4493        1
16.4543        0
16.4593        0
16.4643        0
16.4693        0
16.4743        0
16.4793        0
16.4843        1
16.4893        0
16.4943        1
16.4993        1
16.5043        1
16.5093        0
16.5143        0
16.5193        0
16.5243        0
16.5293        0
16.5343        0
16.5393        1
16.5443        0
16.5493        0
16.5543        0
16.5593        1
16.5643        0
16.5693        1
16.5743        0
16.5793        0
16.5843        1
16.5893        0
16.5943        0
16.5993        0
16.6043        1
16.6093        0
16.6143        1
16.6193        0
16.6243        0
16.6293        0
16.6343        0
16.6393        1
16.6443        0
16.6493        0
16.6543        0
16.6593        0
16.6643        1
16.6693        0
16.6744        0
16.6794        1
16.6844        0
16.6894        0
16.6944        0
16.6994        0
16.7044        1
16.7094        0
16.7144        1
16.7194        0
16.7244        0
16.7294        0
16.7344        3
16.7394        0
16.7444        1
16.7494        0
16.7544        0
16.7594        0
16.7644        0
16.7694        0
16.7744        0
16.7794        0
16.7844        0
16.7894        1
16.7944        1
16.7994        0
16.8044        0
16.8094        0
16.8144        0
16.8194        0
16.8244        1
16.8294        0
16.8344        1
16.8394        0
16.8444        1
16.8494        1
16.8544        0
16.8594        1
16.8644        0
16.8694        0
16.8744        0
16.8794        1
16.8844        1
16.8894        0
16.8944        0
16.8994        1
16.9044        2
16.9094        0
16.9144        0
16.9194        0
16.9244        0
16.9294        0
16.9344        0
16.9394        0
16.9444        0
16.9494        0
16.9544        0
16.9594        1
16.9644        0
16.9694        0
16.9744        2
16.9794        0
16.9844        0
16.9894        1
16.9944        1
16.9994        1
17.0044        1
17.0095        0
17.0145        0
17.0195        1
17.0245        0
17.0295        0
17.0345        1
17.0395        0
17.0445        0
17.0495        0
17.0545        0
17.0595        1
17.0645        0
17.0695        0
17.0745        0
17.0795        1
17.0845        1
17.0895        1
17.0945        0
17.0995        1
17.1045        1
17.1095        0
17.1145        0
17.1195        2
17.1245        0
17.1295        0
17.1345        0
17.1395        0
17.1445        0
17.1495        0
17.1545        0
17.1595        0
17.1645        0
17.1695        1
17.1745        0
17.1795        0
17.1845        0
17.1895        0
17.1945        0
17.1995        0
17.2045        0
17.2095        0
17.2145        1
17.2195        3
17.2245        1
17.2295        0
17.2345        0
17.2395        0
17.2445        0
17.2495        0
17.2545        0
17.2595        0
17.2645        0
17.2695        0
17.2745        0
17.2795        0
17.2845        0
17.2895        1
17.2945        0
17.2995        0
17.3045        1
17.3095        0
17.3145        0
17.3195        0
17.3245        0
17.3295        0
17.3345        0
17.3396        0
17.3446        0
17.3496        1
17.3546        0
17.3596        0
17.3646        1
17.3696        1
17.3746        0
17.3796        0
17.3846        1
17.3896        0
17.3946        0
17.3996        0
17.4046        1
17.4096        0
17.4146        1
17.4196        1
17.4246        0
17.4296        0
17.4346        0
17.4396        0
17.4446        1
17.4496        0
17.4546        1
17.4596        0
17.4646        0
17.4696        0
17.4746        0
17.4796        2
17.4846        0
17.4896        1
17.4946        0
17.4996        0
17.5046        0
17.5096        0
17.5146        0
17.5196        1
17.5246        1
17.5296        0
17.5346        0
17.5396        1
17.5446        1
17.5496        0
17.5546        0
17.5596        0
17.5646        0
17.5696        0
17.5746        1
17.5796        0
17.5846        1
17.5896        0
17.5946        3
17.5996        1
17.6046        2
17.6096        1
17.6146        1
17.6196        1
17.6246        2
17.6296        1
17.6346        0
17.6396        0
17.6446        1
17.6496        0
17.6546        2
17.6596        0
17.6646        2
17.6696        0
17.6747        0
17.6797        0
17.6847        1
17.6897        0
17.6947        1
17.6997        0
17.7047        1
17.7097        3
17.7147        1
17.7197        1
17.7247        1
17.7297        1
17.7347        1
17.7397        0
17.7447        0
17.7497        0
17.7547        0
17.7597        1
17.7647        0
17.7697        0
17.7747        0
17.7797        0
17.7847        0
17.7897        1
17.7947        0
17.7997        0
17.8047        1
17.8097        0
17.8147        0
17.8197        1
17.8247        1
17.8297        1
17.8347        0
17.8397        0
17.8447        0
17.8497        1
17.8547        0
17.8597        0
17.8647        1
17.8697        0
17.8747        0
17.8797        0
17.8847        1
17.8897        1
17.8947        1
17.8997        0
17.9047        1
17.9097        0
17.9147        0
17.9197        0
17.9247        0
17.9297        0
17.9347        0
17.9397        0
17.9447        2
17.9497        0
17.9547        0
17.9597        0
17.9647        0
17.9697        1
17.9747        0
17.9797        0
17.9847        0
17.9897        1
17.9947        0
17.9997        1
18.0047        0
18.0098        0
18.0148        0
18.0198        1
18.0248        0
18.0298        0
18.0348        0
18.0398        0
18.0448        1
18.0498        0
18.0548        0
18.0598        0
18.0648        1
18.0698        0
18.0748        1
18.0798        0
18.0848        0
18.0898        2
18.0948        0
18.0998        0
18.1048        0
18.1098        0
18.1148        1
18.1198        0
18.1248        0
18.1298        0
18.1348        0
18.1398        0
18.1448        0
18.1498        0
18.1548        0
18.1598        1
18.1648        0
18.1698        0
18.1748        0
18.1798        1
18.1848        0
18.1898        0
18.1948        0
18.1998        0
18.2048        1
18.2098        0
18.2148        0
18.2198        1
18.2248        1
18.2298        0
18.2348        0
18.2398        0
18.2448        0
18.2498        0
18.2548        0
18.2598        0
18.2648        0
18.2698        0
18.2748        0
18.2798        0
18.2848        0
18.2898        0
18.2948        0
18.2998        1
18.3048        2
18.3098        1
18.3148        0
18.3198        0
18.3248        0
18.3298        0
18.3348        0
18.3399        0
18.3449        0
18.3499        0
18.3549        0
18.3599        0
18.3649        1
18.3699        0
18.3749        1
18.3799        1
18.3849        2
18.3899        0
18.3949        0
18.3999        0
18.4049        0
18.4099        0
18.4149        0
18.4199        0
18.4249        2
18.4299        0
18.4349        0
18.4399        0
18.4449        0
18.4499        0
18.4549        0
18.4599        0
18.4649        0
18.4699        0
18.4749        0
18.4799        0
18.4849        0
18.4899        0
18.4949        0
18.4999        0
18.5049        0
18.5099        0
18.5149        0
18.5199        0
18.5249        1
18.5299        0
18.5349        0
18.5399        1
18.5449        0
18.5499        1
18.5549        0
18.5599        0
18.5649        0
18.5699        0
18.5749        0
18.5799        1
18.5849        0
18.5899        1
18.5949        2
18.5999        1
18.6049        0
18.6099        0
18.6149        0
18.6199        0
18.6249        0
18.6299        0
18.6349        0
18.6399        0
18.6449        0
18.6499        1
18.6549        0
18.6599        1
18.6649        0
18.6699        0
 18.675        0
  18.68        0
 18.685        0
  18.69        0
 18.695        0
   18.7        0
 18.705        1
  18.71        0
 18.715        0
  18.72        0
 18.725        0
  18.73        0
 18.735        0
  18.74        0
 18.745        1
  18.75        0
 18.755        0
  18.76        0
 18.765        0
  18.77        3
 18.775        0
  18.78        0
 18.785        0
  18.79        1
 18.795        0
   18.8        1
 18.805        1
  18.81        1
 18.815        1
  18.82        0
 18.825        0
  18.83        0
 18.835        1
  18.84        1
 18.845        0
  18.85        0
 18.855        1
  18.86        0
 18.865        1
  18.87        0
 18.875        1
  18.88        0
 18.885        0
  18.89        1
 18.895        0
   18.9        0
 18.905        0
  18.91        1
 18.915        0
  18.92        2
 18.925        0
  18.93        0
 18.935        1
  18.94        0
 18.945        0
  18.95        0
 18.955        1
  18.96        1
 18.965        0
  18.97        0
 18.975        1
  18.98        0
 18.985        0
  18.99        0
 18.995        0
     19        0
 19.005        0
19.0101        1
19.0151        0
19.0201        0
19.0251        0
19.0301        0
19.0351        0
19.0401        1
19.0451        0
19.0501        0
19.0551        0
19.0601        0
19.0651        0
19.0701        0
19.0751        0
19.0801        0
19.0851        0
19.0901        0
19.0951        0
19.1001        0
19.1051        1
19.1101        0
19.1151        0
19.1201        2
19.1251        0
19.1301        0
19.1351        0
19.1401        0
19.1451        0
19.1501        0
19.1551        0
19.1601        1
19.1651        0
19.1701        0
19.1751        0
19.1801        0
19.1851        0
19.1901        1
19.1951        1
19.2001        0
19.2051        0
19.2101        1
19.2151        0
19.2201        0
19.2251        1
19.2301        0
19.2351        2
19.2401        0
19.2451        0
19.2501        0
19.2551        0
19.2601        0
19.2651        1
19.2701        0
19.2751        0
19.2801        1
19.2851        1
19.2901        0
19.2951        0
19.3001        0
19.3051        0
19.3101        0
19.3151        0
19.3201        0
19.3251        1
19.3301        1
19.3351        0
19.3402        0
19.3452        1
19.3502        0
19.3552        0
19.3602        0
19.3652        0
19.3702        0
19.3752        0
19.3802        0
19.3852        1
19.3902        0
19.3952        0
19.4002        0
19.4052        0
19.4102        0
19.4152        0
19.4202        0
19.4252        0
19.4302        0
19.4352        0
19.4402        1
19.4452        0
19.4502        2
19.4552        0
19.4602        1
19.4652        0
19.4702        0
19.4752        1
19.4802        0
19.4852        0
19.4902        1
19.4952        0
19.5002        0
19.5052        0
19.5102        0
19.5152        0
19.5202        0
19.5252        0
19.5302        0
19.5352        0
19.5402        0
19.5452        1
19.5502        0
19.5552        0
19.5602        0
19.5652        1
19.5702        0
19.5752        0
19.5802        0
19.5852        0
19.5902        0
19.5952        0
19.6002        1
19.6052        0
19.6102        0
19.6152        0
19.6202        0
19.6252        0
19.6302        0
19.6352        0
19.6402        1
19.6452        1
19.6502        0
19.6552        0
19.6602        0
19.6652        0
19.6702        0
19.6753        0
19.6803        0
19.6853        0
19.6903        0
19.6953        0
19.7003        0
19.7053        0
19.7103        0
19.7153        1
19.7203        0
19.7253        0
19.7303        0
19.7353        0
19.7403        0
19.7453        0
19.7503        1
19.7553        0
19.7603        1
19.7653        0
19.7703        0
19.7753        1
19.7803        1
19.7853        0
19.7903        0
19.7953        0
19.8003        0
19.8053        0
19.8103        0
19.8153        1
19.8203        0
19.8253        0
19.8303        0
19.8353        0
19.8403        0
19.8453        0
19.8503        0
19.8553        0
19.8603        0
19.8653        0
19.8703        0
19.8753        0
19.8803        0
19.8853        0
19.8903        0
19.8953        0
19.9003        1
19.9053        0
19.9103        0
19.9153        0
19.9203        0
19.9253        0
19.9303        0
19.9353        0
19.9403        1
19.9453        0
19.9503        0
19.9553        0
19.9603        1
19.9653        0
19.9703        0
19.9753        0
19.9803        0
19.9853        1
19.9903        0
19.9953        0
20.0003        0
20.0053        0
